##TITLE= SPLICCO spectrum (File: \\phypcs\vansoelen.1$\Roaming Profile\My Documents\Senior Lab\Fourier Optics\Activity 2.3\DoubleSlitC2_0_Lens.jdx)
##JCAMP-DX= 4.24
##DATE= 3.3.2016
##TIME= 13:13:46
##DATA TYPE= INFRARED SPECTRUM
##OWNER= Public Domain
##RESOLUTION= 2.0
##DELTAX= 1.00000000
##XUNITS= ARBITRARY UNITS
##YUNITS= ARBITRARY UNITS
##APPLICATION= SPLICCO
$$SHOW_VERTICAL_FLIPPED= 0
$$SHOW_HORIZONTAL_FLIPPED= 0
##XFACTOR= 1.0
##YFACTOR= 0.000001
##FIRSTX= 1.000
##LASTX= 2048.000
##NPOINTS= 2048
##FIRSTY= 0.005447
##XYDATA= (X++(Y..Y))
1.000  5447 5813 6515 6454 5188 6576 7019 4623
9.000  5752 4867 5188 5386 6012 6393 5310 6698
17.000  5951 7583 6134 5249 6134 5569 6637 5630
25.000  6454 6820 6256 6134 6820 6576 7202 6958
33.000  5951 6073 7019 6759 6012 6759 6454 6073
41.000  7583 6256 6256 6195 5630 6195 7141 7080
49.000  6256 6515 6134 6134 6454 7019 6256 6134
57.000  6012 7644 5188 6393 5447 6454 6820 6256
65.000  6637 5813 5188 5813 5310 6637 6134 6073
73.000  6958 6073 5951 6073 6073 6637 6012 6515
81.000  5188 5752 7461 7339 6759 6576 5691 6515
89.000  5386 7019 7522 6454 7644 5889 7080 6820
97.000  7080 7019 6515 6012 7141 6637 6576 5447
105.000  6134 5889 6820 5752 6454 6454 5249 5951
113.000  5889 5004 6073 6317 5188 7843 5569 6454
121.000  7263 6820 5630 7904 6958 6134 5813 7339
129.000  8270 7019 5813 6698 6454 6958 6958 6195
137.000  5752 6759 7080 5691 6454 6820 6515 6759
145.000  6820 7400 6317 5951 6637 6134 6515 6256
153.000  5310 7400 7339 6012 6073 6134 7263 4867
161.000  7766 6393 7263 6073 7400 7141 7202 7400
169.000  7263 7522 5813 5508 6637 6698 6012 6576
177.000  6515 6576 6759 6454 6393 7644 6637 4943
185.000  7202 7461 5508 6134 7019 5691 6576 6012
193.000  5752 6073 6454 6515 6759 6897 6637 6637
201.000  7202 6958 7202 7843 6759 7400 6698 8026
209.000  8850 6820 6012 7263 6317 7019 6317 6454
217.000  7141 7019 6073 6576 8148 7019 6454 8087
225.000  7263 6515 5813 7339 7522 6958 7141 6820
233.000  5249 5752 5508 7461 7644 6576 6576 7965
241.000  6317 6698 6012 8468 6195 6698 6134 6820
249.000  6820 7644 6454 7766 7705 6897 6317 6134
257.000  7644 6454 7080 5951 6637 6012 6958 7141
265.000  6637 7019 5889 6897 6820 7400 6134 5813
273.000  6698 6576 6393 6393 6576 6897 7583 6073
281.000  6897 6454 7019 6073 7019 7583 6958 6759
289.000  5951 6317 7583 7019 6515 6012 7461 6820
297.000  6958 8087 6073 6256 6134 6820 6576 6256
305.000  6256 6637 6698 6393 6576 7339 6897 6454
313.000  5752 7522 7339 7019 7202 6820 7339 8087
321.000  6134 7339 8270 7766 6393 7339 6317 6820
329.000  6698 6637 7644 8026 7080 6073 6317 6515
337.000  6012 6195 5447 6454 6256 7080 6897 5813
345.000  7400 7339 7522 7202 7339 6820 7644 6454
353.000  8209 7400 6393 8270 8026 6454 8407 8087
361.000  6698 6195 6759 7263 6637 6958 7141 7263
369.000  7141 7522 6393 4943 6637 6576 6958 6317
377.000  6195 7202 6820 6897 7263 7583 7400 6897
385.000  7141 6195 8346 7263 8148 6515 7843 6698
393.000  6958 7141 6820 6958 7019 6698 5813 6897
401.000  6576 6012 7705 7843 6759 7400 6897 7644
409.000  8087 7522 6256 5889 7202 8407 7019 8087
417.000  7202 7522 7904 7461 7080 7965 7705 6897
425.000  8468 7141 6637 6637 6637 6515 7080 7843
433.000  7904 7705 7522 7644 7141 5249 7141 7522
441.000  6256 8468 5508 6515 6759 5249 6317 6897
449.000  8468 8087 7202 7263 8712 6393 6820 7583
457.000  7766 5569 5813 7766 7019 7644 8712 6515
465.000  7644 7843 7400 6637 7263 6012 7461 6820
473.000  7202 6134 7019 7766 5889 7263 7339 7766
481.000  7904 7263 6820 7904 7400 7705 7400 7263
489.000  6317 7522 7019 7644 6454 6958 8148 6958
497.000  6195 7766 8529 7080 7965 6698 6820 6256
505.000  6958 7080 6958 6393 5889 6576 6134 9033
513.000  7019 7019 6637 7141 6317 7339 7080 7522
521.000  7141 7019 6637 6759 7339 7339 7141 7019
529.000  6393 6958 7202 7080 6759 7583 5951 8026
537.000  7339 6958 6759 6576 6958 7141 7583 6317
545.000  7644 6515 6454 6759 6820 6012 8972 6317
553.000  7522 6820 8148 6958 6576 6073 6820 7202
561.000  7339 6897 6454 7202 7843 6256 7644 7522
569.000  6820 7080 6759 7843 8026 7583 6698 6317
577.000  7141 6637 7263 6073 8087 6637 7019 7019
585.000  7522 6576 7766 7522 7339 7080 7461 6637
593.000  6637 6515 6256 7263 6897 5386 7263 7019
601.000  6958 7522 7202 6698 5889 6897 6958 6897
609.000  7522 6317 7400 6393 8773 7965 7141 6576
617.000  7400 7202 6698 6897 7644 7965 6454 7705
625.000  7705 7904 7522 7141 6637 7843 7644 7644
633.000  7644 6759 5889 8712 7904 7843 7339 7522
641.000  8407 7965 7202 7263 7843 7263 6759 8911
649.000  6317 6454 7843 5813 5951 7705 6958 6958
657.000  6637 8026 7583 7141 7339 6958 7583 6393
665.000  6698 5813 6698 6134 7965 8148 7080 8651
673.000  6698 6454 7705 8087 7522 7202 7339 6759
681.000  8087 8087 7843 8529 7263 8468 7904 9155
689.000  7904 7461 7904 7400 7263 7263 8270 7583
697.000  8026 6195 8209 8468 6958 7202 8346 7339
705.000  7583 5889 7019 8087 8026 7263 7339 7141
713.000  7965 6958 8087 7202 6256 7522 8270 7141
721.000  7522 7263 7141 6820 7583 7202 7141 7843
729.000  8270 7461 6759 8209 7965 8148 5752 8148
737.000  7339 7202 7202 6576 6454 8026 7583 8911
745.000  8850 7583 9155 7843 8773 7904 6515 6637
753.000  7965 7705 7705 7583 7766 8529 7522 9094
761.000  7644 8346 8773 8468 7583 7522 8468 7141
769.000  7644 7080 8026 8026 8651 6958 7644 6256
777.000  8270 8148 7263 8911 7965 8346 7400 7202
785.000  7644 7263 6134 7141 6134 7400 8026 6637
793.000  9155 7644 6454 8026 7644 8407 7019 7843
801.000  7461 9979 7965 8270 8773 7522 8590 8590
809.000  9475 8529 6637 7461 8773 8972 8972 8148
817.000  8346 8529 7141 7339 8209 7766 7583 6454
825.000  8026 8972 8346 7141 7843 8972 8026 7705
833.000  7339 6958 7843 6759 7766 7904 7766 8850
841.000  7843 7400 8972 8148 9155 7400 6759 8911
849.000  8346 7522 7766 8529 8148 7705 6958 8712
857.000  7965 8026 8773 7019 7583 8712 6698 7263
865.000  7766 8972 8270 7644 8651 7965 9094 9857
873.000  8972 9719 9033 11673 9918 9353 9597 9353
881.000  9475 9918 10803 8911 10360 8773 10101 9216
889.000  9719 10925 9719 9796 10101 8972 11673 10482
897.000  10040 8850 10986 11306 12314 11932 9658 10162
905.000  10666 9216 10223 10925 11306 11367 11306 11245
913.000  11169 10803 8850 11108 9979 11306 10803 10101
921.000  9475 9094 9658 9292 8026 7141 8468 8651
929.000  8026 8270 7080 7522 7583 8346 8590 7019
937.000  8087 7461 8407 8209 7843 7522 8087 8712
945.000  8270 8773 7843 9292 9033 8087 9353 9475
953.000  9918 9597 8529 10803 10299 8972 10482 10605
961.000  10101 9979 9597 11306 12558 10727 11429 10223
969.000  10421 12054 10925 11749 12176 11047 12252 12497
977.000  13061 11932 13199 12176 14709 14007 13504 12817
985.000  15274 14206 14892 12314 14206 16220 14328 15213
993.000  14389 16403 16021 17669 15777 15960 17166 14892
1001.000  13565 16159 14450 16083 13565 14206 13565 12619
1009.000  14511 13061 12436 11673 12115 13000 12497 11551
1017.000  11673 12436 11490 11108 11673 10803 10666 11108
1025.000  12619 9536 10299 10421 9475 9658 11367 9094
1033.000  9658 8270 8209 10223 9414 8529 9536 8087
1041.000  9094 8651 8148 9094 8773 8850 10482 10162
1049.000  11169 12176 13061 12176 14511 16906 18860 18356
1057.000  18356 19562 20370 23834 22323 22644 24155 23895
1065.000  23529 26489 24597 25726 24658 24338 23468 24216
1073.000  22583 21759 19806 19745 17288 15579 15777 15335
1081.000  14450 13565 11047 11245 11306 12314 13000 13199
1089.000  13626 15274 19241 21637 27054 30838 36118 45822
1097.000  56031 60074 69016 78080 93522 104921 116136 132906
1105.000  149279 163149 182482 197222 216510 239444 254367 273899
1113.000  296711 307545 320714 343343 359472 378240 394430 396887
1121.000  418875 428274 430472 437720 448310 451132 455863 470420
1129.000  458518 459525 450888 443701 437460 428519 408422 391027
1137.000  372884 353551 331563 318013 297474 270634 249591 218585
1145.000  194201 167177 139070 114244 88487 72419 54718 40024
1153.000  28244 16906 11612 11932 14389 21011 34103 55466
1161.000  75379 100007 130754 170016 220233 272587 340749 389578
1169.000  464499 532097 601464 667872 748455 798107 863630 907927
1177.000  947676 976668 980575 980636 981078 981261 981383 981643
1185.000  981765 981826 981948 981887 982207 982711 982833 983093
1193.000  983093 983154 983276 983215 983154 983154 983154 983093
1201.000  982970 982894 982711 982589 982467 982391 982391 982269
1209.000  982024 982146 982085 981887 982146 981948 981765 981765
1217.000  981765 981521 890089 350576 270374 201129 140276 92393
1225.000  59433 35492 21072 19363 25604 40344 70466 101594
1233.000  151735 202014 269306 323109 404394 472556 558999 626794
1241.000  689616 761318 827023 870435 917189 953673 970229 979934
1249.000  980941 981078 981017 981261 981521 981582 981826 981704
1257.000  981765 981887 981887 982085 981826 981887 982024 982024
1265.000  982207 982207 982207 982085 982207 982085 981948 982146
1273.000  982085 981948 982085 982146 982207 982024 982146 981887
1281.000  981887 981704 927016 534111 448813 387762 333516 268863
1289.000  236423 184939 131013 98878 75120 53192 34988 23025
1297.000  15838 11932 10925 14450 22644 34042 42298 57984
1305.000  80292 95475 123262 149660 167299 195269 222308 244480
1313.000  270496 304524 313282 359029 388326 389776 373647 394308
1321.000  395437 433432 445975 434500 438986 445273 465308 464560
1329.000  457572 456244 432928 417868 400289 391027 378301 357320
1337.000  345860 327397 311650 297978 281910 256900 250339 227405
1345.000  210391 191943 171969 160875 148897 126100 115449 100007
1353.000  88288 74876 66361 58365 52948 41916 36118 33539
1361.000  26733 24719 19745 16525 15274 13565 10605 9292
1369.000  10543 9658 9597 10727 11108 14328 13763 14007
1377.000  14511 16021 17914 17029 18356 20431 22384 22766
1385.000  27496 30014 31143 28946 32410 31845 33157 33356
1393.000  33234 35187 36758 36942 35187 37827 38773 37506
1401.000  39597 37506 38071 36820 37888 34744 36758 36881
1409.000  30334 33356 34866 30701 32593 30899 31280 29694
1417.000  29190 27939 26932 25665 24399 22323 18539 17349
1425.000  18173 18478 18921 16968 16586 15655 16784 13824
1433.000  12878 12252 11749 9719 9414 10162 10605 9536
1441.000  10040 9658 8087 7705 8712 8529 9292 8911
1449.000  7705 8590 8529 10482 9033 8972 10421 11871
1457.000  13061 11169 12878 12314 10727 11429 12680 12252
1465.000  12878 12436 13702 12680 11490 12054 11612 13702
1473.000  12115 11673 11490 11490 9475 10162 11245 10803
1481.000  11810 10605 9216 10543 11306 9536 10605 10040
1489.000  10162 10727 8651 9597 8972 9796 10666 8651
1497.000  10482 10727 8026 8651 7766 9216 9216 8346
1505.000  6637 8712 9414 9292 7843 8407 8651 8148
1513.000  9292 7339 8148 7141 7400 8346 8148 9094
1521.000  8529 10101 8529 10040 9658 9597 10299 10543
1529.000  10299 11108 11245 12054 10605 11306 11551 12252
1537.000  12680 12878 12619 13321 15152 13626 15274 14831
1545.000  15899 15274 17853 17471 16906 15274 17166 17349
1553.000  18112 18036 15152 17792 17730 15396 17608 18417
1561.000  16784 17669 15152 15716 16342 13885 14633 12436
1569.000  12756 12756 12054 11551 11871 11367 10162 10223
1577.000  9719 9216 9918 8468 9536 7080 6897 7461
1585.000  8209 7263 7705 8026 8590 8209 6637 8148
1593.000  8346 9353 9216 10727 9597 10727 11367 10299
1601.000  11871 11108 11749 13443 12314 13000 13565 14328
1609.000  13122 15014 12558 13946 12314 12817 12558 13260
1617.000  12619 11169 9857 10864 11993 9796 8346 9658
1625.000  7461 7339 9094 8148 9033 7904 7263 8590
1633.000  6576 7263 6637 7766 6576 5889 6698 8529
1641.000  8026 6134 7461 7583 6134 6515 7019 8087
1649.000  6698 5889 7766 5508 8148 6317 6820 6256
1657.000  6073 7461 6393 6454 6454 7263 6576 6256
1665.000  7583 7019 7705 6576 8346 7522 7843 8087
1673.000  9094 10482 10162 10360 10482 9597 11047 9658
1681.000  9475 10360 9796 9719 11612 11047 11047 11169
1689.000  10986 10040 12176 10605 10666 10223 9658 11612
1697.000  10299 9979 9597 8712 10223 8712 9155 7705
1705.000  9155 8026 7019 7461 7400 8468 7400 7080
1713.000  6759 6134 5630 6073 6515 6637 6454 4623
1721.000  6134 6317 7263 5813 6393 4684 6256 5813
1729.000  6195 5752 5951 4562 5447 4623 7080 6454
1737.000  5951 6012 5951 5813 5508 6576 5386 5813
1745.000  5889 7019 4806 6759 6073 7461 6134 5951
1753.000  6317 4745 6637 4745 6454 6195 7843 5691
1761.000  5752 6576 6317 6317 5630 6134 5065 6073
1769.000  6958 4806 6073 5386 6454 6393 5951 6576
1777.000  5569 6073 6576 6256 5508 6256 6195 5691
1785.000  5752 6820 6576 4623 5447 6759 5508 5249
1793.000  5310 6393 5447 5630 4943 6576 5951 5508
1801.000  5508 6256 5127 5569 6195 5951 6012 5004
1809.000  6195 5691 6073 5508 5630 6012 4943 5889
1817.000  5569 5310 4867 4867 5951 5004 6134 6454
1825.000  5249 5127 5630 4119 5310 6454 5813 5249
1833.000  6134 6256 6317 5127 5951 6195 6073 5508
1841.000  5508 7202 6256 5447 5065 5569 5249 5065
1849.000  6454 5447 6195 5630 5508 5447 5752 5889
1857.000  6195 5386 5508 5752 6698 4440 5951 6195
1865.000  5889 5691 5249 6317 4943 4303 5813 4180
1873.000  5630 4562 4364 6317 5630 4943 5065 5127
1881.000  5630 5569 5386 5951 5188 4440 5249 5249
1889.000  4501 5508 4745 5386 4943 4806 5951 6012
1897.000  5188 6134 4806 6393 5569 4623 5065 6012
1905.000  5249 6134 6958 5004 5951 5310 5386 3616
1913.000  5752 5249 5951 5752 4745 5386 5310 6576
1921.000  6393 5004 5310 5569 4943 5752 5386 6637
1929.000  5386 5508 6134 3234 4501 5752 3799 6073
1937.000  4745 3677 5447 4867 5004 6012 4562 4623
1945.000  5630 5752 6012 5249 5508 5249 5447 5569
1953.000  4440 5813 5630 5752 5691 5508 4867 5889
1961.000  6073 6134 5386 5508 5951 5004 5951 4745
1969.000  5310 4119 5630 5004 3616 5508 5249 5813
1977.000  4943 6134 5127 6073 4806 4943 4562 3799
1985.000  3860 5188 4623 5386 5188 4180 4943 5951
1993.000  5569 6820 4684 5310 5447 5310 4303 6637
2001.000  4562 5065 4119 4623 5386 5889 5752 3433
2009.000  5889 4180 4806 4180 5249 5569 3799 5004
2017.000  5004 4119 4501 4303 4867 4180 4501 4806
2025.000  5310 6317 5249 5447 4745 4806 4180 5752
2033.000  6576 5065 5951 4119 5127 4440 5569 4242
2041.000  4867 4623 5065 6073 5951 5752 5188 5752
##END=
