##TITLE= SPLICCO spectrum (File: \\phypcs\vansoelen.1$\Roaming Profile\My Documents\Senior Lab\Fourier Optics\SingleSlitC_FarField.jdx)
##JCAMP-DX= 4.24
##DATE= 1.3.2016
##TIME= 15:28:36
##DATA TYPE= INFRARED SPECTRUM
##OWNER= Public Domain
##RESOLUTION= 2.0
##DELTAX= 1.00000000
##XUNITS= ARBITRARY UNITS
##YUNITS= ARBITRARY UNITS
##APPLICATION= SPLICCO
$$SHOW_VERTICAL_FLIPPED= 0
$$SHOW_HORIZONTAL_FLIPPED= 0
##XFACTOR= 1.0
##YFACTOR= 0.000001
##FIRSTX= 1.000
##LASTX= 2048.000
##NPOINTS= 2048
##FIRSTY= 0.022202
##XYDATA= (X++(Y..Y))
1.000  22201 20569 22018 21133 18112 19684 20630 20309
9.000  19867 20813 21881 19424 21011 19928 20569 19241
17.000  19867 21698 17914 20874 21759 21255 20492 19806
25.000  20492 21133 22262 21133 19424 20431 22201 20630
33.000  21881 21576 20752 19302 19485 22964 19806 20065
41.000  19684 21576 21133 19562 20187 20370 19745 19684
49.000  22705 19745 18478 18112 20569 22079 21377 19745
57.000  21133 19806 20691 22201 21316 21377 21377 22446
65.000  21377 21255 21515 19989 20752 22323 21698 22201
73.000  21698 23208 19745 23529 20752 20630 20370 22262
81.000  20813 20691 21698 21255 22705 21072 20370 19562
89.000  21316 21255 21011 22827 20187 22079 22827 21637
97.000  21072 22262 21377 21011 21438 21072 20309 22079
105.000  20630 19989 21133 21515 21698 20752 21759 21820
113.000  19928 21011 22079 21759 23529 22766 21133 22201
121.000  21820 21637 22888 23208 21377 19928 22827 21255
129.000  20935 20813 22766 23270 22140 22201 21759 21759
137.000  23651 21698 22384 22644 21011 22262 22384 20935
145.000  20813 21759 21255 22323 21820 22079 21820 23147
153.000  21759 22384 20370 21637 23208 22827 22766 22323
161.000  22964 23529 21759 22262 21759 21072 23331 22262
169.000  21881 22446 23895 23468 23331 21438 20935 23712
177.000  22522 19745 21377 22262 20935 22964 23208 23208
185.000  23208 22644 23773 21377 22705 23712 20492 24032
193.000  22384 23331 20935 23208 23147 22644 22964 23895
201.000  19684 20935 22644 23086 24979 21637 23392 21515
209.000  23147 23086 24155 23529 21637 25482 22140 23147
217.000  21133 23025 22323 22644 21942 23590 22644 24475
225.000  22766 23468 23270 21942 23086 23331 22705 23712
233.000  24032 24155 21881 22705 22018 23331 22323 20874
241.000  23529 25101 21759 22522 24399 21194 22888 24155
249.000  25101 22446 22446 23773 21698 25345 22705 21194
257.000  23392 25040 22384 24658 22323 23025 23529 24658
265.000  24155 23590 23147 24475 24399 23392 23270 25040
273.000  24338 23834 24032 23971 25223 23208 23529 24536
281.000  25284 21316 24841 22644 23529 23270 23773 22522
289.000  24155 23971 23392 24658 23086 22201 24032 23773
297.000  20492 24917 24536 23773 22644 24536 24277 23895
305.000  22964 24155 22705 22140 22766 24658 22705 22888
313.000  24841 21881 25101 21438 24979 24155 23392 24536
321.000  24917 24338 24338 24917 23651 23773 25040 23147
329.000  24338 24597 22964 24475 23971 22079 23529 22766
337.000  23712 23270 25421 23025 23773 22522 25101 23270
345.000  23895 23392 23895 23834 23712 25787 22964 24155
353.000  24719 23468 22583 24399 22705 24216 23773 25345
361.000  22888 23971 23834 23468 24841 24338 24399 23086
369.000  23270 24093 24155 24841 23895 24536 26932 24597
377.000  23270 24338 25726 22446 26169 25604 24475 23773
385.000  22766 25040 25162 22522 24155 24780 25787 24216
393.000  23468 25604 24597 25604 23651 23773 24216 23834
401.000  24093 22964 25543 24155 23392 23712 25925 24719
409.000  24475 23971 23834 27054 25665 23834 22766 23331
417.000  25726 24155 24597 25986 25986 25421 26108 26108
425.000  23773 25421 26352 24338 24338 26047 25345 25284
433.000  23773 24658 22644 24536 24780 26291 25925 25925
441.000  25482 25284 24979 26550 25101 26489 26611 25162
449.000  25101 26672 25223 24277 24597 23651 27115 26108
457.000  24917 23834 24979 24475 24536 27237 24093 24841
465.000  26611 24719 25284 24979 25284 23712 26291 24277
473.000  24597 24979 25787 24658 23773 25787 23834 26230
481.000  25421 23895 26108 25482 24216 25925 25726 27374
489.000  27054 26047 24338 26489 27618 26352 26428 24841
497.000  25284 23590 25421 24093 24719 25284 26489 26169
505.000  26794 26352 25787 24597 26932 26550 25543 26291
513.000  25604 24277 25345 25925 23895 27298 25604 26291
521.000  25604 24216 25986 26611 26611 27298 25101 24155
529.000  26291 25925 25665 28442 24475 26291 26291 26489
537.000  22644 25787 25604 26672 26611 25223 26794 26169
545.000  25726 27740 25986 25284 25162 26489 26993 24780
553.000  26550 27679 24597 27176 25986 25925 26871 26993
561.000  25925 25482 26993 25421 27618 26733 25665 26169
569.000  26108 26489 26108 25848 25726 26352 25925 24216
577.000  27115 24658 26291 24597 27740 27740 26794 24155
585.000  25986 26291 26428 28061 27740 25604 28122 26794
593.000  24536 26550 26230 26871 26230 26550 25848 26794
601.000  26428 26108 27435 25223 26352 26428 26672 26230
609.000  25925 26611 27176 26550 27237 24979 25162 28503
617.000  25726 27618 26611 26611 26352 24917 28824 26108
625.000  26993 27115 25101 26672 24719 26733 25665 26611
633.000  27298 27374 25604 28305 25726 26047 24475 29007
641.000  26733 27557 26871 27939 26169 26550 26291 25787
649.000  26871 26932 26169 28442 27939 27435 28686 26611
657.000  26489 27557 29007 25040 24979 27740 27298 26550
665.000  26672 27679 26169 28244 26428 26794 28442 26932
673.000  26871 27054 28442 27374 25543 24979 26672 27679
681.000  28564 27618 26871 26352 25604 26932 26108 27618
689.000  27435 27374 25604 28244 26993 28183 27435 28244
697.000  26047 26047 26794 26993 26871 27115 27496 27298
705.000  28061 27237 26993 26672 28381 26993 27115 28000
713.000  28442 25925 27298 27054 26932 28747 26993 27298
721.000  28625 28503 27237 27115 27298 29388 29388 26993
729.000  27939 28122 29694 28442 27618 28686 28381 25925
737.000  29190 28061 29953 26489 28244 26932 29068 27237
745.000  26550 26794 28564 30014 28305 28442 27054 29068
753.000  29755 27939 29892 28442 28564 28381 28061 28824
761.000  27801 29892 29510 28885 29190 28885 28686 30197
769.000  29831 29510 28305 27878 29251 28381 31906 29571
777.000  28625 29510 30457 28564 30777 29510 30395 28625
785.000  29388 28244 28244 31647 30838 30334 30334 30960
793.000  30258 31021 31280 27496 30258 30579 30579 30395
801.000  28946 31784 30136 28824 29251 30334 30960 29892
809.000  30258 29449 29633 31586 33295 31403 32028 30640
817.000  28122 30197 28442 29510 29449 30838 29190 29068
825.000  28061 28686 31021 28824 32471 28747 29571 29327
833.000  29831 29633 30197 28885 30197 29251 30075 29068
841.000  28946 30457 30395 31647 29190 29327 28686 28000
849.000  31647 28625 31280 29633 31082 28061 30197 28747
857.000  28381 29388 29633 26993 28122 28244 29007 30014
865.000  28122 29068 27374 29510 27298 29892 28564 27557
873.000  28305 28122 29068 27878 28686 28244 29327 27115
881.000  29129 30701 28503 27496 26352 31586 28564 28625
889.000  27679 30334 30457 30197 28686 31280 26550 29755
897.000  28244 29190 29633 28625 28503 30334 30075 28000
905.000  28747 29007 28000 31204 31647 28183 29510 28686
913.000  28625 28564 29694 29129 29510 29694 31204 29633
921.000  30014 30258 30334 32532 31525 33417 31021 34546
929.000  34424 32089 35248 32471 35934 33600 34744 36560
937.000  35049 39719 37201 39215 40222 40100 41168 42420
945.000  44571 42114 45258 44876 50995 51438 49042 54016
953.000  53696 55786 58045 61448 61142 65293 69962 71030
961.000  74937 78583 83817 81803 84260 88609 91752 94529
969.000  96299 94468 100648 101335 100831 131639 90745 83878
977.000  110154 99641 115068 120805 146135 138826 145128 151613
985.000  155840 162829 173540 177630 182421 191302 196856 205355
993.000  205233 207248 208255 222110 234149 254367 246753 267170
1001.000  279255 284550 290730 319768 315938 348500 322163 394750
1009.000  332188 354924 368352 346547 438223 415609 432425 450125
1017.000  459830 469596 473823 493415 498084 505317 504310 540917
1025.000  559563 547920 548867 581048 606439 621499 624277 641412
1033.000  641092 649408 663904 668375 666239 679789 695658 710399
1041.000  698313 718593 721492 732829 730754 745616 743739 748088
1049.000  764019 762005 762951 778957 774731 793377 788082 798550
1057.000  816067 824444 825696 830548 849011 854749 845426 846814
1065.000  855756 862943 865400 882536 894132 892484 909315 902128
1073.000  908491 918318 919584 917128 916929 927458 942381 943770
1081.000  949629 946791 955123 959212 964629 957701 966460 967147
1089.000  975524 970992 974212 978484 971252 978988 978561 977172
1097.000  979873 980758 980193 980758 974074 978683 980376 980758
1105.000  980697 981017 980941 980941 980880 981200 981017 980880
1113.000  980941 980697 980636 980514 980758 980697 980758 980941
1121.000  980880 980758 980819 980376 978927 980376 980819 973266
1129.000  978561 980437 978683 972564 978927 979934 979308 970611
1137.000  975967 970168 974395 964629 961043 967528 957503 952849
1145.000  956633 961852 942580 940505 931609 931044 932112 923292
1153.000  911451 926955 929976 893629 890669 908613 878690 859723
1161.000  894880 862439 843274 841641 841840 837735 833081 806240
1169.000  797344 782223 781918 772899 759670 748271 733028 722758
1177.000  719920 697993 690241 677073 658609 650171 634668 637827
1185.000  621820 607202 588616 578591 565300 559441 551445 532097
1193.000  501350 494483 500160 489692 473624 453849 435263 424551
1201.000  418432 408743 395635 386816 374212 361928 352162 333379
1209.000  330983 316685 308873 297474 286762 278568 270756 254688
1217.000  248447 237552 236224 229556 214938 209887 197802 192309
1225.000  189044 175616 179217 171587 161058 159166 145815 144747
1233.000  140962 133211 131517 127855 112870 109590 108903 106950
1241.000  104478 96101 94911 90501 86778 84321 79972 76707
1249.000  71976 72724 66178 69016 63721 61646 58045 56595
1257.000  55024 53894 51377 51056 45960 48859 46768 43121
1265.000  42862 43625 42359 41351 38513 36438 36942 34988
1273.000  34302 36438 34103 32730 34164 35309 32791 31021
1281.000  32410 30701 30258 30838 32089 30258 28442 31021
1289.000  31280 30960 28625 29007 29388 30640 27801 29892
1297.000  29449 27740 29694 27679 29129 28442 29953 29068
1305.000  29831 28686 26291 28381 29251 27801 31204 27618
1313.000  29129 28000 27298 27298 26672 28686 29327 29571
1321.000  28686 28885 28000 31143 30640 29510 30640 29694
1329.000  28503 30014 28442 30075 28946 27496 28061 30777
1337.000  30136 30075 31845 27176 29892 30457 29633 29129
1345.000  28824 31082 31204 28885 28122 31967 30014 30258
1353.000  30457 29892 31906 29633 29327 30334 30334 29510
1361.000  30457 31342 30518 28381 31143 30457 30197 31143
1369.000  30838 30777 32913 33417 30960 28183 31464 31708
1377.000  30518 32089 32593 30014 31784 30075 33035 30777
1385.000  33096 32852 31708 29694 33737 32288 33035 32349
1393.000  35248 33798 29892 33157 31525 31647 31525 33096
1401.000  33737 32211 30518 33737 32471 34683 32211 32028
1409.000  31143 32410 31967 31342 31143 33234 32852 31464
1417.000  34241 32349 30640 30838 30838 30457 30075 31845
1425.000  30334 34866 32288 32028 33798 32211 32913 32593
1433.000  31586 29007 32288 32211 32089 33661 31021 31525
1441.000  34241 33859 33417 31204 31586 30395 33035 32913
1449.000  31403 32730 33737 30640 31204 31403 33417 32791
1457.000  31906 31784 32150 31403 30457 31021 30258 32471
1465.000  31586 31082 31845 33356 30899 31967 30014 32150
1473.000  31342 30838 33096 31021 30640 32211 29633 32471
1481.000  31403 30838 32410 31967 31021 30579 32028 32410
1489.000  32471 29129 29068 32791 29571 31647 31845 30640
1497.000  31845 30640 31708 31082 31143 30899 29694 32089
1505.000  30899 31204 28946 32532 30258 31586 28824 30334
1513.000  29892 31464 31021 31525 31967 27740 30518 30838
1521.000  30579 30197 29190 30579 28305 32532 30075 31403
1529.000  31464 31647 32288 31967 30899 32791 32593 31403
1537.000  32028 30701 31342 31967 29388 28305 31464 33600
1545.000  30457 31403 30075 31403 30701 28564 33234 30258
1553.000  31525 31586 30518 31906 31280 32089 30197 31342
1561.000  31342 29571 31708 30197 31708 31403 30258 31525
1569.000  29449 29007 28946 29571 30518 31403 32349 31906
1577.000  30395 30457 29388 30899 32730 31204 29388 30457
1585.000  29571 32349 30457 32791 30701 30838 31845 30395
1593.000  30838 28625 30136 29953 31525 29633 31021 32028
1601.000  31586 29892 29571 29190 30579 29755 31906 29892
1609.000  28564 31342 30395 30838 31525 31708 32211 29068
1617.000  30334 30838 31204 30701 32913 31342 30701 28381
1625.000  30518 29571 29251 31204 29327 30457 30579 32211
1633.000  30014 29953 30899 29510 30701 28824 31204 30014
1641.000  31021 30701 30197 30014 29068 31525 29449 29449
1649.000  30518 30258 29953 31143 31525 29129 30197 31082
1657.000  29953 33295 29251 30197 29892 30136 29449 29953
1665.000  32532 29831 29190 30334 31143 32028 30334 29449
1673.000  29953 28381 31280 30014 29571 29694 31708 29571
1681.000  30579 29633 30136 31280 28061 29388 29068 29129
1689.000  30701 28747 31280 30136 31647 30457 30518 30518
1697.000  31021 30899 30777 30258 30960 31342 29449 29388
1705.000  29129 29892 29633 28747 28686 30701 29633 30014
1713.000  31708 29007 34164 31143 33356 30640 31082 30334
1721.000  29327 30701 30334 28747 27115 31403 30640 29007
1729.000  30899 31082 32791 29388 30640 31464 30960 30777
1737.000  27939 30701 30640 29755 30334 27740 30334 29007
1745.000  32471 29892 29633 30457 29755 27679 29571 28686
1753.000  29571 32211 30777 28381 28564 31021 29633 29571
1761.000  27237 30640 29953 31342 29892 29129 29190 30197
1769.000  30701 28824 29633 28122 27878 31143 29510 28747
1777.000  31525 31708 30777 29327 28000 29892 28686 30334
1785.000  29068 29571 32150 30579 30014 30518 30197 29388
1793.000  29831 29129 30777 28686 29755 28000 31082 28686
1801.000  28305 28442 30838 29892 28442 29327 28122 31021
1809.000  29892 29388 30457 29129 29327 28946 30197 29694
1817.000  29755 26871 27176 30640 30640 29633 28244 31525
1825.000  31204 32150 30334 28564 28625 27054 29251 31082
1833.000  30899 29510 28564 28564 29510 29190 28625 29633
1841.000  28625 29129 30777 28305 31967 29953 29327 30701
1849.000  28183 29007 29388 27740 28503 30258 28122 28824
1857.000  28625 27878 30334 30457 27496 27618 29633 28000
1865.000  28305 27939 29388 28381 28503 27435 30334 28381
1873.000  29571 29068 29129 28824 28061 29510 28442 29327
1881.000  29892 31143 29953 28747 29571 29327 30334 28000
1889.000  28305 27435 26108 27740 27618 28381 28564 29068
1897.000  29129 28000 29388 28824 29953 29892 28564 28686
1905.000  27115 28503 27298 28564 29129 31021 30258 26932
1913.000  29251 30838 29327 31280 30136 26489 28061 29129
1921.000  29755 29068 30075 27679 26489 28885 30197 28244
1929.000  30518 30960 27496 28885 27557 29571 28885 28000
1937.000  28824 27679 29510 29633 28305 27939 28183 29190
1945.000  28000 29007 28747 28625 27298 28946 28747 27618
1953.000  28686 28625 28824 28061 28183 28305 28442 30258
1961.000  29449 29831 28381 26794 29129 29510 28503 27801
1969.000  27801 29068 27115 27176 27618 30457 27740 27939
1977.000  29571 29068 27740 29510 29694 28885 30075 29251
1985.000  30579 28503 29068 27176 29007 27237 27237 29571
1993.000  29190 27496 29190 28381 30075 28686 29633 28000
2001.000  28686 29510 31403 27740 28946 30258 27496 28183
2009.000  28442 30334 29251 27435 27115 30518 29633 28946
2017.000  28061 28686 27679 27740 28885 28686 29633 28442
2025.000  29694 27557 27298 28946 28000 28824 26489 26611
2033.000  28442 28686 27115 28747 28564 27237 28183 28442
2041.000  29007 29892 27679 29129 28442 27374 29129 29068
##END=
